File: XRD_shift_danny/data/MOF808.xy
#Intensity_unit=cps
#Attenuator_coefficient=1.0000
3.0000 9193.94
3.1300 7482.06
3.2600 7660.55
3.3900 7893.69
3.5200 6415.91
3.6500 6223.31
3.7800 7194.41
3.9100 9178.23
4.0400 19155.4
4.1700 54499.8
4.3000 174636
4.4300 292324
4.5600 19569
4.6900 9452.83
4.8200 6398.94
4.9500 5574.61
5.0800 4412.84
5.2100 4271.53
5.3400 3569.81
5.4700 2475.57
5.6000 3119.32
5.7300 2532.53
5.8600 2627.43
5.9900 2641.65
6.1200 1946.64
6.2500 2196.99
6.3800 2426.89
6.5100 1659.89
6.6400 1602.95
6.7700 1890.68
6.9000 2318.3
7.0300 2443.93
7.1600 4125.53
7.2900 2815.6
7.4200 2480.53
7.5500 2294.26
7.6800 2158.81
7.8100 2471.75
7.9400 2642.26
8.0700 3549.76
8.2000 12940.8
8.3300 56589.5
8.4600 24294.4
8.5900 18604.3
8.7200 75334.4
8.8500 13680.3
8.9800 4403.19
9.1100 3384.59
9.2400 2558.33
9.3700 2110.34
9.5000 1852.52
9.6300 1875.03
9.7600 2069.81
9.8900 3514.77
10.0200 16443.5
10.1500 16923.3
10.2800 2533.3
10.4100 1783.92
10.5400 1549.12
10.6700 1668.46
10.8000 2265.46
10.9300 9386.66
11.0600 7404.09
11.1900 1340.06
11.3200 1104.81
11.4500 1127.16
11.5800 906.8550
11.7100 893.2650
11.8400 926.9450
11.9700 842.0825
12.1000 682.6000
12.2300 954.6275
12.3600 1006.69
12.4900 779.6450
12.6200 816.9900
12.7500 930.7825
12.8800 778.7575
13.0100 2953.82
13.1400 5426.93
13.2700 856.4800
13.4000 745.3550
13.5300 803.8900
13.6600 865.7575
13.7900 610.3825
13.9200 896.2550
14.0500 799.2250
14.1800 1560.52
14.3100 2092.26
14.4400 821.6025
14.5700 664.5775
14.7000 701.3325
14.8300 1101.88
14.9600 1311.6
15.0900 821.7575
15.2200 596.0800
15.3500 575.7200
15.4800 660.0825
15.6100 470.8000
15.7400 651.3400
15.8700 775.8575
16.0000 769.5275
16.1300 579.6925
16.2600 592.7325
16.3900 754.2000
16.5200 1193.4
16.6500 693.8825
16.7800 686.5350
16.9100 554.0225
17.0400 589.6100
17.1700 553.1750
17.3000 653.9800
17.4300 465.9375
17.5600 576.4450
17.6900 513.7425
17.8200 639.8675
17.9500 1074.98
18.0800 1181.12
18.2100 639.9175
18.3400 658.7225
18.4700 588.3975
18.6000 590.5625
18.7300 587.0150
18.8600 824.9500
18.9900 630.6175
19.1200 664.5250
19.2500 1017.29
19.3800 3123.89
19.5100 1036.39
19.6400 707.7650
19.7700 503.4575
19.9000 569.8175
20.0300 695.4500
20.1600 1594.16
20.2900 1167.36
20.4200 610.4425
20.5500 778.5375
20.6800 1549.26
20.8100 3048.18
20.9400 1181.37
21.0700 737.2250
21.2000 658.7500
21.3300 951.5850
21.4600 1501.76
21.5900 750.0000
21.7200 634.0075
21.8500 1035.88
21.9800 995.3650
22.1100 807.7900
22.2400 604.6350
22.3700 702.9325
22.5000 803.1000
22.6300 1127.67
22.7600 826.9750
22.8900 862.3125
23.0200 1257.54
23.1500 879.0900
23.2800 745.8950
23.4100 708.4050
23.5400 678.5300
23.6700 800.5875
23.8000 662.7025
23.9300 653.9075
24.0600 1175.72
24.1900 1112.87
24.3200 449.6550
24.4500 609.2925
24.5800 550.0000
24.7100 698.7900
24.8400 719.2525
24.9700 763.2025
25.1000 1480.68
25.2300 1736.28
25.3600 566.4925
25.4900 776.3950
25.6200 673.0425
25.7500 942.7300
25.8800 948.2025
26.0100 684.8900
26.1400 1152.97
26.2700 1733.33
26.4000 1265.73
26.5300 735.9950
26.6600 719.6050
26.7900 560.2375
26.9200 685.9675
27.0500 1387.1
27.1800 2764.65
27.3100 2425.3
27.4400 907.0100
27.5700 545.4325
27.7000 762.5975
27.8300 717.5900
27.9600 907.4650
28.0900 2246.16
28.2200 1139.58
28.3500 746.3850
28.4800 592.1075
28.6100 634.6550
28.7400 603.7250
28.8700 950.0000
29.0000 2349.11
29.1300 2451.7
29.2600 1038.26
29.3900 807.9350
29.5200 1613.79
29.6500 1758.23
29.7800 709.9500
29.9100 958.4700
30.0400 984.2675
30.1700 553.7675
30.3000 475.0700
30.4300 758.0175
30.5600 725.7025
30.6900 632.2975
30.8200 744.1225
30.9500 558.3475
31.0800 370.1425
31.2100 513.4125
31.3400 665.1500
31.4700 577.0075
31.6000 566.0200
31.7300 659.5625
31.8600 645.1700
31.9900 585.2575
32.1200 883.7600
32.2500 761.4825
32.3800 599.0550
32.5100 650.2600
32.6400 766.2600
32.7700 366.5175
32.9000 599.2600
33.0300 583.3700
33.1600 983.3525
33.2900 1216.74
33.4200 699.6100
33.5500 433.3325
33.6800 451.6900
33.8100 484.5225
33.9400 603.5325
34.0700 800.0000
34.2000 819.4550
34.3300 515.6250
34.4600 534.4875
34.5900 552.5300
34.7200 621.4875
34.8500 927.3750
34.9800 619.8700
35.1100 431.6200
35.2400 527.8525
35.3700 352.9075
35.5000 797.9475
35.6300 937.6625
35.7600 492.4400
35.8900 723.7750
36.0200 1094.99
36.1500 705.2300
36.2800 755.7525
36.4100 875.1925
36.5400 654.8475
36.6700 507.4625
36.8000 407.9550
36.9300 478.3900
37.0600 575.1900
37.1900 420.1900
37.3200 307.2725
37.4500 561.0400
37.5800 631.4000
37.7100 632.0975
37.8400 664.3250
37.9700 372.9775
38.1000 397.8400
38.2300 350.0000
38.3600 414.3925
38.4900 616.3300
38.6200 497.7400
38.7500 480.8850
38.8800 340.8500
39.0100 373.0675
39.1400 656.1825
39.2700 550.0000
39.4000 366.6675
39.5300 330.5400
39.6600 455.2575
39.7900 657.1425
39.9200 702.9675
40.0000 666.6675